# Wavelength (um)  Transmission
0.3585 0.004040
0.3590 0.005140
0.3595 0.006430
0.3600 0.007930
0.3605 0.009720
0.3610 0.011730
0.3615 0.014030
0.3620 0.016600
0.3625 0.019380
0.3630 0.022550
0.3635 0.025920
0.3640 0.029620
0.3645 0.033750
0.3650 0.038080
0.3655 0.042760
0.3660 0.047730
0.3665 0.052840
0.3670 0.058390
0.3675 0.063960
0.3680 0.070010
0.3685 0.076170
0.3690 0.082460
0.3695 0.089010
0.3700 0.095780
0.3705 0.102550
0.3710 0.109720
0.3715 0.116730
0.3720 0.123890
0.3725 0.131070
0.3730 0.138410
0.3735 0.145550
0.3740 0.152280
0.3745 0.158870
0.3750 0.166070
0.3755 0.173280
0.3760 0.180740
0.3765 0.188260
0.3770 0.195580
0.3775 0.203240
0.3780 0.210990
0.3785 0.218320
0.3790 0.225880
0.3795 0.233210
0.3800 0.240290
0.3805 0.247580
0.3810 0.254750
0.3815 0.261700
0.3820 0.268750
0.3825 0.275320
0.3830 0.282090
0.3835 0.288720
0.3840 0.295110
0.3845 0.301800
0.3850 0.308030
0.3855 0.314250
0.3860 0.320470
0.3865 0.326510
0.3870 0.332450
0.3875 0.338460
0.3880 0.344260
0.3885 0.349900
0.3890 0.355590
0.3895 0.361100
0.3900 0.366380
0.3905 0.371790
0.3910 0.376890
0.3915 0.382200
0.3920 0.387050
0.3925 0.391960
0.3930 0.396740
0.3935 0.401520
0.3940 0.406010
0.3945 0.410580
0.3950 0.414770
0.3955 0.418810
0.3960 0.422350
0.3965 0.426250
0.3970 0.430430
0.3975 0.434320
0.3980 0.438130
0.3985 0.441940
0.3990 0.445710
0.3995 0.449390
0.4000 0.453020
0.4005 0.456630
0.4010 0.460080
0.4015 0.463420
0.4020 0.466790
0.4025 0.469950
0.4030 0.472990
0.4035 0.476220
0.4040 0.479150
0.4045 0.482000
0.4050 0.484770
0.4055 0.487630
0.4060 0.490680
0.4065 0.493170
0.4070 0.495920
0.4075 0.498530
0.4080 0.501110
0.4085 0.503610
0.4090 0.506020
0.4095 0.508560
0.4100 0.510900
0.4105 0.513080
0.4110 0.515280
0.4115 0.517390
0.4120 0.519500
0.4125 0.521610
0.4130 0.523690
0.4135 0.525580
0.4140 0.527600
0.4145 0.529410
0.4150 0.531280
0.4155 0.533350
0.4160 0.535070
0.4165 0.537060
0.4170 0.538710
0.4175 0.540250
0.4180 0.542060
0.4185 0.543810
0.4190 0.545490
0.4195 0.547040
0.4200 0.548730
0.4205 0.550320
0.4210 0.551740
0.4215 0.553230
0.4220 0.554570
0.4225 0.555970
0.4230 0.557170
0.4235 0.558250
0.4240 0.559150
0.4245 0.560210
0.4250 0.561160
0.4255 0.562010
0.4260 0.562940
0.4265 0.563880
0.4270 0.564390
0.4275 0.565460
0.4280 0.566310
0.4285 0.567030
0.4290 0.567920
0.4295 0.568650
0.4300 0.569520
0.4305 0.570190
0.4310 0.570760
0.4315 0.571410
0.4320 0.571850
0.4325 0.572240
0.4330 0.572660
0.4335 0.573040
0.4340 0.573300
0.4345 0.573690
0.4350 0.573940
0.4355 0.574250
0.4360 0.574640
0.4365 0.574860
0.4370 0.575110
0.4375 0.575480
0.4380 0.575700
0.4385 0.575910
0.4395 0.576040
0.4415 0.576410
0.4420 0.576510
0.4425 0.576410
0.4430 0.576310
0.4435 0.575850
0.4440 0.575520
0.4445 0.575300
0.4450 0.574850
0.4455 0.574160
0.4460 0.573520
0.4465 0.572810
0.4470 0.572190
0.4475 0.571140
0.4480 0.570090
0.4485 0.569390
0.4490 0.568330
0.4495 0.567170
0.4500 0.566240
0.4505 0.565090
0.4510 0.564050
0.4515 0.563030
0.4520 0.561960
0.4525 0.561000
0.4530 0.559790
0.4535 0.558740
0.4540 0.557840
0.4545 0.556570
0.4550 0.555400
0.4555 0.553900
0.4560 0.552650
0.4565 0.550930
0.4570 0.549350
0.4575 0.547690
0.4580 0.545950
0.4585 0.543980
0.4590 0.541920
0.4595 0.539890
0.4600 0.537550
0.4605 0.535600
0.4610 0.533490
0.4615 0.530960
0.4620 0.528390
0.4625 0.525600
0.4630 0.522680
0.4635 0.519520
0.4640 0.516020
0.4645 0.512400
0.4650 0.508830
0.4655 0.505030
0.4660 0.501060
0.4665 0.496530
0.4670 0.492220
0.4675 0.487550
0.4680 0.482650
0.4685 0.477940
0.4690 0.472880
0.4695 0.467740
0.4700 0.462340
0.4705 0.457050
0.4710 0.451420
0.4715 0.445980
0.4720 0.440480
0.4725 0.434900
0.4730 0.429090
0.4735 0.423420
0.4740 0.417620
0.4745 0.411910
0.4750 0.405990
0.4755 0.400260
0.4760 0.394170
0.4765 0.388270
0.4770 0.382400
0.4775 0.376140
0.4780 0.370060
0.4785 0.363870
0.4790 0.357580
0.4795 0.351340
0.4800 0.344900
0.4805 0.338740
0.4810 0.332300
0.4815 0.325980
0.4820 0.320270
0.4825 0.314510
0.4830 0.308330
0.4835 0.302040
0.4840 0.295580
0.4845 0.289330
0.4850 0.283180
0.4855 0.276920
0.4860 0.270620
0.4865 0.264370
0.4870 0.258240
0.4875 0.252340
0.4880 0.246470
0.4885 0.240700
0.4890 0.235050
0.4895 0.229530
0.4900 0.224150
0.4905 0.218940
0.4910 0.213710
0.4915 0.208930
0.4920 0.203980
0.4925 0.199270
0.4930 0.194750
0.4935 0.190280
0.4940 0.186010
0.4945 0.181810
0.4950 0.177740
0.4955 0.173810
0.4960 0.170140
0.4965 0.166490
0.4970 0.163060
0.4975 0.159610
0.4980 0.156220
0.4985 0.152910
0.4990 0.149510
0.4995 0.146190
0.5000 0.142910
0.5005 0.139430
0.5010 0.135990
0.5015 0.132440
0.5020 0.128790
0.5025 0.125140
0.5030 0.121320
0.5035 0.117900
0.5040 0.114530
0.5045 0.110820
0.5050 0.107040
0.5055 0.103200
0.5060 0.099520
0.5065 0.095910
0.5070 0.092350
0.5075 0.088920
0.5080 0.085550
0.5085 0.082250
0.5090 0.079210
0.5095 0.076280
0.5100 0.073470
0.5105 0.070900
0.5110 0.068250
0.5115 0.065820
0.5120 0.063450
0.5125 0.061110
0.5130 0.058930
0.5135 0.056730
0.5140 0.054620
0.5145 0.052540
0.5150 0.050500
0.5155 0.048500
0.5160 0.046550
0.5165 0.044600
0.5170 0.042720
0.5175 0.040870
0.5180 0.039090
0.5185 0.037360
0.5190 0.035670
0.5195 0.034040
0.5200 0.032470
0.5205 0.030880
0.5210 0.029410
0.5215 0.027950
0.5220 0.026570
0.5225 0.025290
0.5230 0.024010
0.5235 0.022790
0.5240 0.021630
0.5245 0.020510
0.5250 0.019530
0.5255 0.018640
0.5260 0.017760
0.5265 0.016900
0.5270 0.016030
0.5275 0.015240
0.5280 0.014490
0.5285 0.013790
0.5290 0.013140
0.5295 0.012520
0.5300 0.011950
0.5305 0.011420
0.5310 0.010920
0.5315 0.010480
0.5320 0.010080
0.5325 0.009690
0.5330 0.009360
0.5335 0.009040
0.5340 0.008760
0.5345 0.008500
0.5350 0.008250
0.5355 0.008050
0.5360 0.007850
0.5365 0.007670
0.5370 0.007520
0.5375 0.007390
0.5380 0.007270
0.5385 0.007160
0.5395 0.007000
0.5425 0.006860
0.5440 0.006990
0.5450 0.007160
0.5455 0.007280
0.5460 0.007420
0.5465 0.007560
0.5470 0.007700
0.5475 0.007870
0.5480 0.008060
0.5485 0.008290
0.5490 0.008530
0.5495 0.008790
0.5500 0.009090
0.5505 0.009370
0.5510 0.009680
0.5515 0.010010
0.5520 0.010340
0.5525 0.010690
0.5530 0.011040
0.5535 0.011380
0.5540 0.011730
0.5545 0.012050
0.5550 0.012370
0.5555 0.012680
0.5560 0.012960
0.5565 0.013210
0.5570 0.013450
0.5575 0.013640
0.5580 0.013810
0.5585 0.013940
0.5605 0.014130
0.5615 0.014010
0.5620 0.013910
0.5625 0.013780
0.5630 0.013600
0.5635 0.013410
0.5640 0.013190
0.5645 0.012940
0.5650 0.012660
0.5655 0.012370
0.5660 0.012040
0.5665 0.011710
0.5670 0.011360
0.5675 0.010970
0.5680 0.010600
0.5685 0.010230
0.5690 0.009860
0.5695 0.009450
0.5700 0.009020
0.5705 0.008600
0.5710 0.008170
0.5715 0.007750
0.5720 0.007320
0.5725 0.006860
0.5730 0.006460
0.5735 0.006040
0.5740 0.005620
0.5745 0.005250
0.5750 0.004860
0.5755 0.004510
0.5760 0.004180
